# ================= DQRFIT RESULTS ================
# INPUT FILE: series/CATH.rad
# OUTPUT: CLEANED_DATA
# FILTER FUNCTION: f(t)
# f(t)=+line(t)+annual(t)+jumps(t)
# line(t)=+P 1+P 2*t
# annual(t)=+P 3*sin(2*pi*t+P 4)
# jumps(t)=+P 5*heav(t-2011.4160  )
# heav(t)=(t<0?0:1)
# TOTAL OBSERVATIONS MTOT= 3534
# INITIAL TIME INTERVAL= 2017.4593 - 2007.3374 = 10.1218
# TOTAL OBSERVATIONS AFTER PREFILTER M= 3525
# TIME-SPAN= 2017.4593 - 2007.3374 = 10.1218
# OBSERVATIONS: USED M=  3525 REJECTED MTOT-M=     9 %USED=   99.7453
# N=  5 PARAMETERS
# MAXSIG= 175.00000
# MAXRES=  30.44046
# SCALE FACTOR FOR LENGTHS: SCL=  10.00000
# SCALE FACTOR FOR SIGMAS: SCLSIG=   1.00000
# CHI^2=   8469.458 DOF=  3520 CHI^2/DOF=   2.40610
# RMS=      6.472 SDEV=      6.473 MEAN=    0.00911
#  P #       PARAMETER +-    SIGMA %error PARAMETER NAME
# P 1 =      1448.07662 +-  159.626  11.02 YZERO                              
# P 2 =        -0.72196 +-    0.079  11.01 SLOPE                              
# P 3 =         5.64777 +-    0.156   2.75 ANNUAL AMPLITUDE                   
# P 4 =        -2.74435 +-    0.036   1.31 ANNUAL PHASE                       
# P 5 =        13.71261 +-    0.515   3.75 OFFSET 2011.4160                   
#       T             B_CLEANED       RE-SCALED_SIG_OBS
     2007.33744        -7.33666         4.82205
     2007.34018        -2.02946         4.86115
     2007.34292       -10.42626         4.88625
     2007.34565         6.98766         4.86063
     2007.34839         3.45552         4.86572
     2007.35113         2.97874         4.87892
     2007.35387         0.25468         5.19937
     2007.35661        -3.35747         5.16366
     2007.35934        -1.05166         4.93902
     2007.36208         2.42839         4.84520
     2007.36482        -7.73313         4.93044
     2007.36756         4.11979         5.01333
     2007.37029         3.02039         4.91112
     2007.37303         1.23933         5.02200
     2007.37577        -9.53304         4.99952
     2007.37851         6.62045         4.83430
     2007.38125        -2.94055         4.88481
     2007.38398         3.57258         5.11691
     2007.38672        -1.61747         4.88814
     2007.38946        -2.40055         4.99761
     2007.39220         2.69631         4.94672
     2007.39493        -0.21167         4.83530
     2007.39767         5.52419         4.91701
     2007.40041         9.24589         4.96584
     2007.40315         2.84873         4.90364
     2007.40589        -4.21227         4.99895
     2007.40862        -4.66226         4.91500
     2007.41136        -5.73246         4.82729
     2007.41410        -4.52573         4.86834
     2007.41684         2.11778         4.83878
     2007.41958         7.94968         4.85526
     2007.42231         2.61192         4.81621
     2007.42505         5.09658         4.89305
     2007.42779        -1.74950         4.86267
     2007.43053        11.30963         4.86444
     2007.43326         1.04499         4.84184
     2007.43600         4.25965         4.83312
     2007.43874         4.14582         4.80518
     2007.44148         1.10932         4.88843
     2007.44422       -12.26876         5.09575
     2007.44695         0.68400         4.96115
     2007.45243         3.08194         6.88650
     2007.45517         4.64742         4.81282
     2007.45791        -8.21758         4.81324
     2007.46064         3.14699         4.83589
     2007.46886         7.35909         7.78183
     2007.47159        -1.17170         4.83547
     2007.47433        -0.27496         4.84875
     2007.47707         0.62434         5.05887
     2007.47981         1.25764         4.86310
     2007.48255        -0.64257         4.84512
     2007.48528        -0.86248         4.84722
     2007.48802         6.39324         4.84452
     2007.49076        -4.10103         5.08198
     2007.49350         2.00554        10.23020
     2007.49624         2.06522        12.08683
     2007.49897        -2.78256         7.22752
     2007.50171         2.39651         6.29963
     2007.50445         8.55666         6.84288
     2007.50719        -1.55300         4.85266
     2007.50992         0.08506         4.82632
     2007.51266         3.62088         4.82887
     2007.51814         5.24642         4.85311
     2007.52088        15.20731         4.86464
     2007.52361         1.37694         4.88573
     2007.52635         2.87708         4.87133
     2007.52909        15.45747         5.47260
     2007.53183        12.02926         5.19337
     2007.53457        -0.44278         4.84272
     2007.53730        11.34568         4.86521
     2007.54004         7.72545         4.89695
     2007.54278         8.81480         4.81458
     2007.54552         1.12313         4.84582
     2007.54825        13.21020         4.83529
     2007.55099        21.80543         4.83416
     2007.55373         8.24119         4.87568
     2007.55647        -1.94122         4.97378
     2007.55921         5.72586         4.83499
     2007.56194         1.73886         5.62594
     2007.56468         8.35183         4.83858
     2007.56742         9.61464         4.99298
     2007.57016        11.77075         4.83424
     2007.57290        15.22885         4.84509
     2007.57563         0.74199         4.99147
     2007.57837        -1.12685         4.98633
     2007.58111         9.71694         4.87392
     2007.58385         4.22024         4.83223
     2007.58658         6.01636         4.83167
     2007.58932         4.02769         4.82193
     2007.59206        19.17246         4.87153
     2007.59480        13.90581         4.95758
     2007.59754        13.97841         4.92986
     2007.60027         3.46725         4.82523
     2007.60301         6.62496         4.82586
     2007.60575         9.52794         4.83016
     2007.60849         5.79551         4.81891
     2007.61123        15.69390         4.83318
     2007.61396         4.58134         4.84766
     2007.61670        -0.08250         5.22341
     2007.61944        10.55849         5.18981
     2007.62218        17.06196         8.51764
     2007.62491        14.62084         4.99933
     2007.62765        -0.54325         5.25786
     2007.63039        16.34708         5.18581
     2007.63313        13.75884         4.98072
     2007.63587        11.31953         4.96994
     2007.63860         5.63632         4.98585
     2007.64134         8.82705         4.89830
     2007.64408         3.80805         5.18747
     2007.64682         4.87438         5.10726
     2007.64956        13.24250         5.13633
     2007.65229         2.58348         5.12902
     2007.65503         3.78174         5.05512
     2007.65777         3.08835         5.05757
     2007.66051         6.52527         5.15357
     2007.66324         4.68498         5.08289
     2007.66598         7.08107         5.00589
     2007.66872         1.69421         5.00195
     2007.67146        16.22462         5.05570
     2007.67420        19.30396         5.13881
     2007.67693        14.88816         5.27743
     2007.67967        11.65234         5.06426
     2007.68515         0.92626         5.16139
     2007.68789        12.77473         5.17024
     2007.69062         9.55823         5.12198
     2007.69336         7.03387         5.11853
     2007.69610         7.61458         5.02557
     2007.69884         9.92661         5.00410
     2007.70157        11.26699         5.07956
     2007.70431         5.01564         5.31493
     2007.70705        11.99082         5.13388
     2007.70979        11.58494         5.17060
     2007.71253         4.55157         5.02468
     2007.71526         6.71030         4.86782
     2007.71800         2.13693         4.91099
     2007.72074        13.33973         5.00150
     2007.72348        21.39320         5.03891
     2007.72621         5.45431         4.88028
     2007.72895         3.92214         5.28200
     2007.73169        12.29016         4.90886
     2007.73443         8.46332         5.06135
     2007.73717        -0.92716         5.00856
     2007.73990        17.09380         5.13981
     2007.74264         9.76782         5.06563
     2007.74538        19.89309         4.87393
     2007.74812        12.41348         5.05606
     2007.75086        13.16589         5.22076
     2007.75359        11.05876         5.22266
     2007.75633        11.90610         5.14806
     2007.75907         2.48885         5.16436
     2007.76181         0.91681         4.90910
     2007.76454        10.11540         4.92893
     2007.76728         9.40052         5.15759
     2007.77002        10.84854         5.68694
     2007.77276         5.82995         5.31945
     2007.77550         6.13044         4.99475
     2007.77823        11.66796         5.01472
     2007.78097         8.26982         5.00136
     2007.78371         0.50228         4.83905
     2007.78645         9.30869         4.98260
     2007.78919         9.22949         4.99300
     2007.79192        10.44285         5.13032
     2007.79466         9.49099         4.98386
     2007.79740        15.41273         4.89287
     2007.80014        20.67709         4.99272
     2007.80287         4.30272         5.53214
     2007.80561         2.11295         4.91590
     2007.80835        -2.36023         5.18294
     2007.81109         5.57779         5.16491
     2007.81383         0.78176         4.93748
     2007.81656         2.14843         5.07135
     2007.81930         3.84623         4.99658
     2007.82204        -3.32057         5.02111
     2007.82478        -3.32926         4.97835
     2007.82752         2.64805         5.02709
     2007.83025        -7.28736         5.16905
     2007.83299         6.44877         5.01715
     2007.83573         0.99293         4.92152
     2007.83847         2.02097         4.94292
     2007.84120         5.45201         4.81917
     2007.84394         1.94777         4.90607
     2007.84668        -5.48130         4.84332
     2007.84942        -1.49601         4.90146
     2007.85216       -12.22152         5.03076
     2007.85489         5.78629         4.97190
     2007.85763        10.16841         4.91016
     2007.86037         2.56009         4.85359
     2007.86311        13.67639         4.88486
     2007.86585        10.47704         4.93952
     2007.86858        -1.59381         4.98272
     2007.87132        11.28724         4.93337
     2007.87406        14.83291         4.84472
     2007.87680         7.14171         4.84352
     2007.87953         5.53812         4.84651
     2007.88227        -0.18567         4.88475
     2007.88501        -4.29420         4.91969
     2007.88775        -7.58405         4.84009
     2007.89049        -6.39088         4.88327
     2007.89322         2.39596         4.99370
     2007.89596       -11.59612         6.36338
     2007.89870        -1.89262         5.10041
     2007.90144        -1.96981         4.98320
     2007.90418        -2.58681         4.95767
     2007.90691        -1.29315         4.98446
     2007.90965        -7.42909         4.92120
     2007.91239        -3.36280         4.99947
     2007.91513        -7.70007         4.88263
     2007.91786         2.86600         4.87944
     2007.92060        -4.67287         8.13840
     2007.92882        -3.77260         5.40038
     2007.93155        -3.47822         5.08295
     2007.93429        -5.81908         5.39373
     2007.93703        -1.85272         5.23422
     2007.93977        -1.70114         4.97108
     2007.94251         1.64483         4.90289
     2007.94524       -14.98593         4.94191
     2007.94798        -7.78181         5.10241
     2007.95072        -5.99888         4.98977
     2007.95346         0.28415         5.00877
     2007.95619         0.77130         5.23120
     2007.95893        -0.11603         5.04401
     2007.96167        -5.80479         4.99159
     2007.96441        -2.73458         5.23770
     2007.96715        -7.89971         4.98192
     2007.96988       -15.77998         5.07279
     2007.97262        -2.71652         4.97151
     2007.97536         1.72977         4.94027
     2007.97810         3.31169         4.99061
     2007.98084        -4.71587         4.98707
     2007.98357        -4.04079         4.94003
     2007.98631        -3.87098         5.18899
     2007.98905         0.00554         5.13934
     2007.99179        -1.27694         5.10467
     2007.99452        -4.70012         5.13168
     2007.99726        -6.47514         4.95467
     2008.00000         1.55867         6.17447
     2008.00274        -2.16113         4.93897
     2008.00548         3.84633         4.87375
     2008.00821         0.66005         4.86680
     2008.01095         6.83635         4.91973
     2008.01369        -0.22257         4.86556
     2008.01643        -2.22442         4.84742
     2008.01916        -4.72524         4.94191
     2008.02190        -9.97258         4.99252
     2008.02464        -2.99343         4.88244
     2008.02738         3.81071         4.84917
     2008.03012       -13.80886         4.92666
     2008.03285       -12.36788         4.87049
     2008.03559       -10.84857         4.84443
     2008.03833        -8.10307         4.93095
     2008.04107        -7.10489         4.99953
     2008.04381        -5.46153         4.93810
     2008.04654       -10.82672         4.98046
     2008.04928        -7.71783         4.85749
     2008.05202        -5.64624         4.86285
     2008.05476        -1.62362         4.94644
     2008.05749         0.19358         4.90395
     2008.06023         1.36872         4.83091
     2008.06297         0.75837         4.89757
     2008.06845        -1.16682         7.95826
     2008.08214       -10.23786         5.34077
     2008.08487       -11.80109         4.86967
     2008.08761        -7.41885         4.86335
     2008.09035        -6.68442         4.86143
     2008.09309       -11.35742         4.89430
     2008.09582       -11.94139         5.06064
     2008.09856       -11.74192         5.03882
     2008.10130        -8.01876         5.03209
     2008.10404       -18.20066         4.90440
     2008.10678        -9.24570         4.86100
     2008.10951        -3.03880         4.84645
     2008.11225       -12.46320         4.88095
     2008.11499        -6.33718         4.85060
     2008.11773        -3.50606         6.78849
     2008.12047       -18.44850         4.84017
     2008.12320        -6.79617         4.98157
     2008.12594       -12.84499         5.91610
     2008.12868        15.39772        11.22401
     2008.13142         2.02821         4.89824
     2008.13415        -4.00327         4.86324
     2008.13689        -5.75591         4.83089
     2008.13963        -4.84319         4.99720
     2008.14237        -2.16258         4.82690
     2008.14511         2.38480         4.90763
     2008.14784        -9.24324         4.89463
     2008.15058       -10.59110         4.84105
     2008.15332       -17.59394         4.85272
     2008.15606         7.57456        13.97622
     2008.15880        -5.35244         4.85933
     2008.16153        -9.76602         4.85112
     2008.16427         0.06356         4.82926
     2008.16701       -15.51284         4.78302
     2008.16975        -5.85016         4.76377
     2008.17248        -2.94924         4.80670
     2008.17522        -3.52067         4.96820
     2008.17796       -14.58437         4.84397
     2008.18070        -7.14289         4.79992
     2008.18344        -0.27135         4.78896
     2008.18617        -8.70405         4.88286
     2008.18891         6.11851         4.83230
     2008.19165        -6.65503         4.89779
     2008.19439        -7.16252         4.79121
     2008.19713        -4.59314         5.87310
     2008.19986        -4.30031         4.81532
     2008.20260        -1.95916         4.81293
     2008.20534        -4.35943         4.82824
     2008.20808       -10.82701         4.96803
     2008.21081         5.72874         5.02793
     2008.21355        -5.10775         5.12226
     2008.21629         1.00351         4.91910
     2008.21903        -4.26734         4.92266
     2008.22177        -9.13015         4.87178
     2008.22450        -4.37884         4.89399
     2008.22724        -5.23616         4.92486
     2008.22998        -4.75132         4.98635
     2008.23272        -7.30396         4.95983
     2008.23546       -25.97277         8.56215
     2008.23819        -3.51208         4.82455
     2008.24093        -9.38132         5.04577
     2008.24367        -6.60652         4.86537
     2008.24641        -7.93468         4.82204
     2008.24914        -5.57264         4.87017
     2008.25188         0.35666         4.86781
     2008.25462        -4.14977         4.82829
     2008.25736        -1.26424         4.85440
     2008.26010        -3.51977         4.83953
     2008.26283        -5.35509         4.81421
     2008.26557         1.10036         4.81503
     2008.26831        -6.97721         4.78376
     2008.27105        -0.76882         4.94579
     2008.27379        -4.07167         4.83881
     2008.27652        -9.61140         4.93403
     2008.27926         3.52391         4.95332
     2008.28200        -0.97238         4.86131
     2008.28474         5.45582         4.84774
     2008.28747         0.71413         4.91074
     2008.29021        -3.11344         4.95038
     2008.29295        -1.23352         4.97894
     2008.29569        -5.02668         4.83182
     2008.29843        -7.15302         4.84071
     2008.30116        -8.56992         4.99221
     2008.30390        -5.38560         4.85114
     2008.30664       -10.56964         5.04187
     2008.30938        -5.25563         4.97637
     2008.31211        -6.25405         5.17184
     2008.31485        -0.91744         4.87489
     2008.31759       -10.69208         5.02047
     2008.32033        -4.01815         4.92534
     2008.32307        -0.32046         4.89235
     2008.32580         0.10525         4.98413
     2008.32854        -6.80176         4.84607
     2008.33128        -6.60568         5.02954
     2008.33402        -5.28481         4.87395
     2008.33676         1.23788         4.83138
     2008.33949        -2.70992         5.04944
     2008.34223        -5.81733         4.83406
     2008.34497        -3.55833         4.87892
     2008.34771        -2.84138         4.84278
     2008.35044         3.22772         4.90125
     2008.35318         1.02484         4.76835
     2008.35592        -0.76065         4.77061
     2008.35866        -0.26891         4.85157
     2008.36140         3.88767         5.15520
     2008.36413        -0.00488         4.88138
     2008.36687         5.12166         4.88309
     2008.36961        -3.04810         4.76408
     2008.37235        -8.76701         4.78740
     2008.37509         5.01292         6.62650
     2008.37782        -2.67653         4.77753
     2008.38056        -3.88989         4.83365
     2008.38330        -0.24290         4.80022
     2008.38604         1.93763         4.78968
     2008.38877        -2.92408         4.81738
     2008.39151         0.95323         4.91357
     2008.39425        -3.10634         4.79620
     2008.39699         3.83190         4.82113
     2008.39973         2.10603         4.81895
     2008.40246         0.48212         5.22916
     2008.40520        -1.02801         4.91889
     2008.40794        -2.05853         4.81982
     2008.41068        -3.32800         4.80926
     2008.41342       -14.84359         4.78217
     2008.41615         3.66175         4.77723
     2008.41889        -0.88554         4.75603
     2008.42163         2.39795         4.88172
     2008.42437        -0.09619         5.72576
     2008.42710        -2.92502         4.79305
     2008.42984         3.65010         4.85550
     2008.43258         1.42608         4.97488
