# ================= DQRFIT RESULTS ================
# INPUT FILE: series/IWAC.rad
# OUTPUT: CLEANED_DATA
# FILTER FUNCTION: f(t)
# f(t)=+line(t)+annual(t)
# line(t)=+P 1+P 2*t
# annual(t)=+P 3*sin(2*pi*t+P 4)
# heav(t)=(t<0?0:1)
# TOTAL OBSERVATIONS MTOT= 1397
# INITIAL TIME INTERVAL= 2011.9124 - 2007.9316 =  3.9808
# TOTAL OBSERVATIONS AFTER PREFILTER M= 1396
# TIME-SPAN= 2011.9124 - 2007.9316 =  3.9808
# OBSERVATIONS: USED M=  1396 REJECTED MTOT-M=     1 %USED=   99.9284
# N=  4 PARAMETERS
# MAXSIG= 175.00000
# MAXRES=  39.41056
# SCALE FACTOR FOR LENGTHS: SCL=  10.00000
# SCALE FACTOR FOR SIGMAS: SCLSIG=   1.00000
# CHI^2=   2049.811 DOF=  1392 CHI^2/DOF=   1.47257
# RMS=      9.127 SDEV=      9.123 MEAN=   -0.35396
#  P #       PARAMETER +-    SIGMA %error PARAMETER NAME
# P 1 =      6078.94441 +-  416.210   6.85 YZERO                              
# P 2 =        -3.03379 +-    0.207   6.83 SLOPE                              
# P 3 =         3.50275 +-    0.288   8.23 ANNUAL AMPLITUDE                   
# P 4 =        -2.36885 +-    0.090   3.79 ANNUAL PHASE                       
#       T             B_CLEANED       RE-SCALED_SIG_OBS
     2007.93155       -16.46292         4.98502
     2007.93429        -7.92939         4.76612
     2007.93703       -16.05313         4.14663
     2007.93977       -19.41088         3.96991
     2007.94251        -9.44217         4.27267
     2007.94524       -19.06937         3.92311
     2007.94798       -26.94430         3.95791
     2007.95072       -17.67029         3.88005
     2007.95346       -15.38262         3.93013
     2007.95619        -9.83548         4.12308
     2007.95893       -13.95600         3.94852
     2007.96167       -17.86207         3.85461
     2007.96441       -11.08403         4.17283
     2007.96715       -17.40410         3.91275
     2007.96988       -27.83748         4.07452
     2007.97262       -16.65479         3.98562
     2007.97536       -15.79809         3.94507
     2007.97810       -13.92934         3.82896
     2007.98084       -18.68222         3.89734
     2007.98357        -7.95836         3.87802
     2007.98631       -11.72140         4.08084
     2007.98905       -13.68686         4.06243
     2007.99179       -13.50081         3.96520
     2007.99452       -14.40733         3.95757
     2007.99726       -20.51431         3.87229
     2008.00000       -14.24275         4.78040
     2008.00274        -4.92412         3.90162
     2008.00548        -3.26210         3.82511
     2008.00821        -8.27839         3.79778
     2008.01095        -6.84484         3.82594
     2008.01369       -16.07727         3.82096
     2008.01643       -13.72674         3.81759
     2008.01916       -15.81968         3.89947
     2008.02190       -17.77775         3.84833
     2008.02464       -13.44971         3.76195
     2008.02738       -17.67725         3.80240
     2008.03012       -19.23278         3.89568
     2008.03285       -20.55700         3.82740
     2008.03559       -17.45749         3.80386
     2008.03833       -13.10309         3.77699
     2008.04107       -21.08968         3.87893
     2008.04381       -20.00428         3.91145
     2008.04654       -14.37987         3.88812
     2008.04928       -17.32877         3.83448
     2008.05202       -20.65333         3.79853
     2008.05476       -13.87358         3.82048
     2008.05749       -15.91005         3.82532
     2008.06023       -11.48553         3.81546
     2008.06297        -8.94283         3.77644
     2008.09309       -19.97831         7.50713
     2008.09582       -20.56229         3.93085
     2008.09856       -19.67733         3.91110
     2008.10130       -20.40228         3.88937
     2008.10404       -23.53718         3.84153
     2008.10678       -23.83650         3.79640
     2008.10951       -22.17874         3.80083
     2008.11225       -26.79261         3.79396
     2008.12868        -8.50916         4.87233
     2008.13142        -8.67636         3.78787
     2008.13415        -8.79832         3.81908
     2008.13689       -12.51918         3.81124
     2008.13963       -15.71542         3.87602
     2008.14237        -6.40338         3.80970
     2008.14511       -14.34371         3.76253
     2008.14784       -13.52811         3.82652
     2008.15058       -20.87591         3.80863
     2008.15332       -24.19905         3.77148
     2008.15606       -18.26466         6.03320
     2008.15880       -19.07496         3.72887
     2008.16153       -17.80137         3.75397
     2008.16427       -15.33456         3.80673
     2008.16701       -18.09804         3.78838
     2008.16975       -15.66204         4.35848
     2008.17248       -13.94638         3.75416
     2008.17522       -15.88192         3.83994
     2008.17796       -18.17737         3.77421
     2008.18070       -20.41731         3.78481
     2008.18344       -16.19587         3.75433
     2008.18617       -15.03365         3.83857
     2008.18891        -5.36118         3.74098
     2008.19165        -9.56690         3.76803
     2008.19439       -15.27610         3.79371
     2008.19713       -10.91604         4.58175
     2008.19986       -19.82466         3.81659
     2008.20260       -18.09854         3.75269
     2008.20534       -15.78262         3.76567
     2008.20808       -16.92232         3.90325
     2008.21355       -14.29275         4.11697
     2008.21629       -11.37909         3.83663
     2008.21903       -12.00900         3.84554
     2008.22177       -20.10827         3.82226
     2008.22450       -10.07933         3.81989
     2008.22724       -19.42451         3.79761
     2008.22998       -13.57050         3.94523
     2008.23272       -10.56949         3.96572
     2008.23546       -12.26435         5.52361
     2008.23819       -15.84947         3.98481
     2008.24093        -9.93315         3.92936
     2008.24367       -25.91379         3.90191
     2008.24641       -12.54966         4.70144
     2008.24914       -13.32012         3.99711
     2008.25188       -11.41827         4.00392
     2008.25462       -17.55244         4.08744
     2008.25736       -13.14151         3.91811
     2008.26010       -17.01884         3.91713
     2008.26283       -19.63269         3.94421
     2008.26557       -13.09343         3.92127
     2008.26831       -17.81455         3.83186
     2008.27105       -19.96271         3.89532
     2008.27379       -13.21988         3.83352
     2008.27652       -17.11050         4.00561
     2008.27926       -10.86539         3.94571
     2008.28200       -11.40487         3.84723
     2008.28474        -4.39050         3.83204
     2008.28747        -4.90699         3.89309
     2008.29021        -5.87584         3.94544
     2008.29295       -12.78191         3.93161
     2008.29569        -8.49035         3.94595
     2008.29843       -16.12488         3.83514
     2008.30116       -13.36005         3.95083
     2008.30390       -20.90359         3.96369
     2008.30664       -14.33935         4.09298
     2008.30938       -10.75498         4.02707
     2008.31211       -19.33189         4.49226
     2008.31485       -13.95163         3.87174
     2008.31759       -15.53792         4.18598
     2008.32033       -13.61326         4.29942
     2008.32307       -13.42081         3.89391
     2008.32580       -12.02324         4.56827
     2008.32854       -13.26924         3.84928
     2008.33128       -18.21617         3.91943
     2008.33402       -14.65653         3.88956
     2008.33676       -12.19047         3.82813
     2008.33949        -9.96538         3.98715
     2008.34223        -9.80376         3.81806
     2008.34497       -15.59860         4.02233
     2008.34771        -8.44211         3.85317
     2008.35044        -8.02839         3.88929
     2008.35318       -10.10914         3.88108
     2008.35592       -10.38895         3.83832
     2008.35866       -17.87787         3.85780
     2008.36140       -13.59622         4.09778
     2008.36413       -13.29609         3.85248
     2008.36687       -26.61089         3.85646
     2008.36961       -12.45299         3.79299
     2008.37235       -11.57443         3.81324
     2008.37509       -11.23055         5.36911
     2008.37782        -3.47655         3.79194
     2008.38056        -8.64851         3.82067
     2008.38330       -14.90161         3.79392
     2008.38604       -12.46935         3.79824
     2008.38877       -13.80176         3.92884
     2008.39151       -14.30074         3.94466
     2008.39425       -11.47801         3.79551
     2008.39699       -12.23866         4.15168
     2008.39973        -4.34954         3.89452
     2008.40246       -10.51244         4.23592
     2008.40520       -11.20923         3.90083
     2008.40794       -11.73983         3.91465
     2008.41068       -13.92688         3.80970
     2008.41342       -13.64383         3.82488
     2008.41615       -10.73731         3.81390
     2008.41889       -11.59687         3.80453
     2008.42163       -12.54720         3.96835
     2008.42437        -9.81805         5.96315
     2008.42710       -13.79120         3.83087
     2008.42984        -9.81587         3.89405
     2008.43258       -10.81391         3.94815
     2008.43532        -8.75916         3.89993
     2008.43806       -19.59882         3.93547
     2008.44079       -15.79414         3.84965
     2008.44353       -16.46553         3.91220
     2008.44627       -14.59194         3.87840
     2008.44901       -15.57476         3.86704
     2008.45175       -19.24442         3.92248
     2008.45448       -14.90446         3.93926
     2008.45722       -14.03479         3.80682
     2008.45996       -15.64116         3.84593
     2008.46270       -14.68858         3.92553
     2008.46543       -15.21246         3.92202
     2008.46817       -19.26334         3.81027
     2008.47091       -18.26004         3.81266
     2008.47365       -11.18328         4.05727
     2008.47639       -16.00949         4.08390
     2008.47912       -14.17969         3.83259
     2008.48186       -10.97256         3.82237
     2008.48460        -7.59101         3.91997
     2008.48734       -15.09257         3.83138
     2008.49008       -13.75787         3.81208
     2008.49281       -14.53175         3.80760
     2008.49555       -19.74341         3.81276
     2008.49829       -13.57855         3.89192
     2008.50103        -9.86957         3.92129
     2008.50376       -10.57338         3.82968
     2008.50650       -10.66456         3.81746
     2008.50924       -10.11793         3.81906
     2008.51198       -13.40001         3.82805
     2008.51472       -14.21300         3.83576
     2008.51745        -9.89006         3.83778
     2008.52019        -7.58678         3.82034
     2008.52293        -4.90072         3.91522
     2008.52567       -11.01936         4.06035
     2008.52841       -11.17515         3.81587
     2008.53114        -7.01556         3.97034
     2008.53388        -2.67824         3.95729
     2008.53662        -7.99251         3.96407
     2008.53936       -11.84664         4.03501
     2008.54209       -11.50348         4.00393
     2008.54483        -6.81641         3.97741
     2008.54757        -3.94367         3.92209
     2008.55031        -7.79010         3.83600
     2008.55305        -0.24228         3.82253
     2008.55578        -7.29245         3.87656
     2008.55852       -10.02749         3.83844
     2008.56126       -13.69544         3.84194
     2008.56400        -5.85234         3.82030
     2008.56674        -8.37266         3.83774
     2008.56947        -3.91763         3.79515
     2008.57221        -5.69104         3.98129
     2008.57495        -4.65792         3.95124
     2008.57769        -4.71918         4.03672
     2008.58042        -9.28711         3.84285
     2008.58316        -4.18330         3.79903
     2008.58590        -3.97965         3.80198
     2008.58864        -6.98715         3.92541
     2008.59138        -3.41147         4.46431
     2008.59411        -3.06504         3.79029
     2008.59685        -2.94337         3.87171
     2008.59959        -2.37326         3.97797
     2008.60233        -2.12306         3.99456
     2008.60507       -10.55489         3.92324
     2008.60780       -10.76130         3.86402
     2008.61054        -9.04077         4.12514
     2008.61328       -22.49295         7.67217
     2008.61602        -8.72026         7.57071
     2008.61875       -17.95378         8.80026
     2008.62149        -0.79583         9.50039
     2008.62423       -10.19327         8.17861
     2008.62697       -24.95016        10.86854
     2008.62971       -15.45407         9.75703
     2008.63244        10.14431         8.89508
     2008.63518       -40.37305         8.80100
     2008.63792       -13.29099         9.20597
     2008.64066       -20.14698         8.14279
     2008.64339       -18.80781         8.37663
     2008.64613       -18.49788         7.38789
     2008.64887       -16.49512         7.73507
     2008.65161       -17.07232         9.40059
     2008.65435       -12.05737         8.54515
     2008.65708       -13.90944         7.97149
     2008.65982       -14.06245         7.63018
     2008.66256        -6.47973         8.50399
     2008.66530        -7.24512         8.59285
     2008.66804       -23.17617         9.48056
     2008.67077       -22.04194         8.10252
     2008.67351       -13.26939         9.42153
     2008.67625       -19.30118         8.68099
     2008.67899       -10.77403         9.43664
     2008.68172        -6.77086         8.67573
     2008.68446       -13.89737         8.05597
     2008.68720       -14.87807         9.05375
     2008.68994        -4.21941         9.99889
     2008.69268        -6.57325         8.17228
     2008.69541       -10.22072         9.44313
     2008.69815        14.00143         8.47765
     2008.70089        -7.47846         9.11202
     2008.70363       -14.13292         7.48420
     2008.70637        -6.08965         8.34980
     2008.70910        -1.74560         8.27591
     2008.71184       -21.22915         8.55878
     2008.71458       -17.83647         8.07536
     2008.71732        -2.03913         8.83193
     2008.72005       -25.93578         9.42847
     2008.72279       -22.90704         8.71505
     2008.72553       -17.61648         8.61060
     2008.72827       -14.79838         8.51354
     2008.73101         2.83254        10.55082
     2008.73374        -2.42646         9.45864
     2008.73648       -18.91663         8.19131
     2008.73922         7.47668         8.49504
     2008.74196       -21.20996         8.22715
     2008.74470       -18.20535         8.80651
     2008.74743       -11.57361         7.98616
     2008.75017        -3.66470         8.49891
     2008.75291       -13.93759         9.08492
     2008.75565        -9.28950         9.33651
     2008.75838       -23.86973        10.47034
     2008.76112       -12.43657         8.21838
     2008.76386       -20.00161         8.98086
     2008.76660       -28.02103        10.24216
     2008.76934       -10.02707         9.86040
     2008.77207       -31.91240         8.70038
     2008.77481       -15.00220         9.79923
     2008.77755       -26.83357         8.90252
     2008.78029       -10.89072         8.84830
     2008.78303       -14.36833         8.65176
     2008.78576        -9.27563         8.57897
     2008.78850       -24.93467         8.11058
     2008.79124       -21.16392         7.67229
     2008.79398       -24.41637         8.20703
     2008.79671       -24.31746         8.81983
     2008.79945       -19.92470         8.35640
     2008.80219       -12.04496         7.76509
     2008.80493       -11.77921         8.47149
     2008.80767       -11.36355         7.53335
     2008.81040        -7.29232         8.62987
     2008.81314       -15.01544        10.38379
     2008.81588        -7.91721         8.13257
     2008.81862       -10.44680         8.87426
     2008.82136        -4.25309         8.41647
     2008.82409       -16.41946         9.25219
     2008.82683        -9.50206         8.11347
     2008.82957       -20.87990         8.29195
     2008.83231        -0.28059         8.09134
     2008.83504       -14.00080         8.18642
     2008.83778       -10.31144         8.57463
     2008.84052       -17.15244         7.52849
     2008.84326       -11.60191         8.30459
     2008.84600        -6.36649         8.09397
     2008.84873       -24.06038         8.84949
     2008.85147       -23.78425         8.54337
     2008.85421       -25.62163         8.80583
     2008.85695        -5.63981         8.41839
     2008.85969        -4.94851         9.00026
     2008.86242       -19.40820         8.01228
     2008.86516       -23.93345         8.11950
     2008.86790       -24.17192         7.56691
     2008.87064        -8.36953         7.31180
     2008.87337       -16.09925         7.72014
     2008.87611       -18.57088         8.25866
     2008.87885       -34.45659        10.20416
     2008.88159       -20.85067         8.07763
     2008.88433       -30.14318         8.23242
     2008.88706       -14.84066         9.94136
     2008.88980       -14.63819        10.40176
     2008.89254       -25.05853        10.85336
     2008.89528       -27.55394         9.95433
     2008.89802        -8.59023         9.44828
     2008.90075       -13.23924         9.58328
     2008.90349       -28.07186         8.40816
     2008.90897       -18.27724         9.11491
     2008.91170       -17.01775         9.47862
     2008.91444       -13.93252         8.72566
     2008.91718        -3.28532         8.11829
     2008.91992       -15.15778         9.05759
     2008.92266        -5.08532         9.21458
     2008.92539       -19.17442         9.24688
     2008.92813       -19.00217         9.29635
     2008.93087       -13.88951        11.68151
     2008.93361        -7.20245         8.48509
     2008.93634       -21.62866         8.86462
     2008.93908       -28.99776         9.99988
     2008.94182       -14.79291         8.74641
     2008.94456       -31.62355         9.07851
     2008.94730       -20.72821         8.40835
     2008.95003       -16.11146         9.80324
     2008.95277       -14.71968         8.43276
     2008.95551       -18.00432         8.08772
     2008.95825        -5.51587         7.93803
     2008.96099        -2.42262         8.43264
     2008.96372       -39.01283        24.23162
     2008.96646       -29.11451         7.45221
     2008.96920       -24.03438         7.42888
     2008.97194       -30.18202         7.73883
     2008.97467       -38.23454         7.97696
     2008.97741       -21.22543         8.74078
     2008.98015       -22.90276         7.93925
     2008.98289       -26.72980         7.99490
     2008.98563       -19.33612         8.96520
     2008.98836       -29.58159        20.45796
     2008.99110       -25.01013         7.99959
     2008.99384       -17.64435         8.63598
     2008.99658       -17.82291         7.87598
     2008.99932         2.18079         7.52449
     2009.00205       -11.50951         8.61893
     2009.00479       -24.02094         7.96299
     2009.00753       -17.46568         8.06796
     2009.01027       -20.71757         7.37648
     2009.01300       -10.66069         7.93775
     2009.01574       -12.11150         7.40078
     2009.01848       -19.53145         8.13453
     2009.02122       -23.57786         8.17015
     2009.02396       -26.60451         7.30701
     2009.02669       -20.22759         7.74134
     2009.02943       -24.91009         7.93401
     2009.03217       -12.80967         7.50865
     2009.03491       -26.01551         7.50357
     2009.03765       -27.37704         7.70058
     2009.04038       -32.77520         7.75687
     2009.04312       -29.89340         7.76433
     2009.04586       -39.10240         8.00687
     2009.04860       -22.60355         8.09336
