# ================= DQRFIT RESULTS ================
# INPUT FILE: series/LWCK.rad
# OUTPUT: CLEANED_DATA
# FILTER FUNCTION: f(t)
# f(t)=+line(t)+annual(t)
# line(t)=+P 1+P 2*t
# annual(t)=+P 3*sin(2*pi*t+P 4)
# heav(t)=(t<0?0:1)
# TOTAL OBSERVATIONS MTOT= 1781
# INITIAL TIME INTERVAL= 2017.4593 - 2012.1123 =  5.3470
# TOTAL OBSERVATIONS AFTER PREFILTER M= 1778
# TIME-SPAN= 2017.4593 - 2012.1123 =  5.3470
# OBSERVATIONS: USED M=  1778 REJECTED MTOT-M=     3 %USED=   99.8316
# N=  4 PARAMETERS
# MAXSIG= 175.00000
# MAXRES=  43.21323
# SCALE FACTOR FOR LENGTHS: SCL=  10.00000
# SCALE FACTOR FOR SIGMAS: SCLSIG=   1.00000
# CHI^2=   2067.476 DOF=  1774 CHI^2/DOF=   1.16543
# RMS=      9.324 SDEV=      9.319 MEAN=   -0.37973
#  P #       PARAMETER +-    SIGMA %error PARAMETER NAME
# P 1 =     -1639.57316 +-  238.377  14.54 YZERO                              
# P 2 =         0.82279 +-    0.118  14.38 SLOPE                              
# P 3 =         4.75187 +-    0.280   5.89 ANNUAL AMPLITUDE                   
# P 4 =        -2.71704 +-    0.074   2.73 ANNUAL PHASE                       
#       T             B_CLEANED       RE-SCALED_SIG_OBS
     2012.11225        17.79077         6.23124
     2012.11499        20.81500         6.36214
     2012.11773        22.16962         6.36598
     2012.12047        21.63033         6.35174
     2012.12320        18.83753         6.16487
     2012.12594        16.96495         6.23432
     2012.12868         9.37895         6.39514
     2012.13142        16.73564         7.14973
     2012.13415        20.01146         6.58919
     2012.13689        13.61359         6.24508
     2012.13963        21.26480         6.62416
     2012.14237        18.03544         6.39394
     2012.14511        11.99799         6.40328
     2012.14784         7.60873         6.29246
     2012.15058        29.66696         6.12201
     2012.15332        21.92475         6.16607
     2012.15606        16.17155         6.82871
     2012.15880         9.12408        17.05543
     2012.16153        13.76501         6.20380
     2012.16427        10.54132         6.42538
     2012.16701        20.21254         6.85145
     2012.16975        21.46186         6.29880
     2012.17248        10.32305         6.20289
     2012.17522        13.26582         6.24096
     2012.17796         8.00538         6.47249
     2012.18070        15.68469         6.41182
     2012.18344        13.77512         6.23903
     2012.18617        16.06638         6.26301
     2012.18891        11.20197         6.54206
     2012.19165        22.54028         6.24633
     2012.19439        16.20181         6.80417
     2012.19713         6.42268         6.27234
     2012.19986        18.91744         6.29752
     2012.20260        20.79418         6.71634
     2012.20534        13.22392         6.47965
     2012.20808        21.26405         6.07469
     2012.21081         7.24026         6.24563
     2012.21355        12.17156         6.83202
     2012.21629        13.00592         6.38558
     2012.21903         4.83393         6.57383
     2012.22177        11.19134         6.25755
     2012.22450        11.96092         6.14403
     2012.22724        14.35063         6.19154
     2012.22998        16.94481         7.03026
     2012.23272        16.94944         6.32121
     2012.23546        16.24708         6.22071
     2012.23819        13.67329         6.43538
     2012.24093        14.05208         6.15248
     2012.24367        13.20316         6.62055
     2012.24641        20.70964         6.16166
     2012.24914        16.77469         6.29459
     2012.25188        13.11994         6.26168
     2012.25462         9.39832         6.09600
     2012.25736        18.81635         6.31639
     2012.26010        14.77806         7.94180
     2012.26283        14.90167         6.07478
     2012.26557        12.65910         6.11056
     2012.26831        16.52445         6.24666
     2012.27105        11.88591         6.21016
     2012.27379         9.11286         6.26089
     2012.27652        11.86301         6.10203
     2012.27926        15.44809         6.27930
     2012.28200        11.39039         6.20546
     2012.28474         7.03139         6.10975
     2012.28747         6.92265         6.17695
     2012.29021        16.96593         6.05012
     2012.29295        14.41098         6.18372
     2012.29569         6.96648         7.12292
     2012.29843         5.10386         6.21455
     2012.30116        13.94844         6.43237
     2012.30390         2.85996         6.10482
     2012.30664        18.63087         7.58516
     2012.30938        11.51276         6.26870
     2012.31211        20.25876         6.36922
     2012.31485        15.49208         6.29661
     2012.31759         9.36828         6.10208
     2012.32033        19.74568         6.29784
     2012.32307        12.13329         6.39271
     2012.32580        11.38204         6.18851
     2012.32854        11.54656         6.28803
     2012.33128        16.38403         6.22605
     2012.33402        14.23859         6.46908
     2012.33676        15.23911         6.17291
     2012.33949        14.85081         6.28597
     2012.34223         8.45967         6.16553
     2012.34497         4.79818         6.31167
     2012.34771         4.31330         6.17229
     2012.35044        11.66441         6.12876
     2012.35318        14.00661         6.06228
     2012.35592        11.91040         6.14965
     2012.35866         6.86126         6.32572
     2012.36140        10.76328         6.02606
     2012.36413         7.01513         6.99098
     2012.36687        12.65179         6.05778
     2012.36961        12.46911         6.10592
     2012.37235         9.55475         6.13892
     2012.37509        14.48925         6.10002
     2012.37782         7.44473         6.32303
     2012.38056         0.90938         6.20915
     2012.38330        15.74519         6.27854
     2012.38604        10.63545         6.29942
     2012.38877        10.69042         6.21554
     2012.39151         6.25922         6.21439
     2012.39425        15.05635         6.17806
     2012.39699        15.73840         6.32052
     2012.39973         3.96713         6.25948
     2012.40246        14.44399         6.27798
     2012.40520         6.33593         6.66453
     2012.40794        10.11895         6.17975
     2012.41068        18.52280         6.10872
     2012.41342         7.37808         7.97013
     2012.41615        20.52265         6.19867
     2012.41889        17.41368         6.36334
     2012.42163         6.96337         6.13295
     2012.42437        19.26312         6.28893
     2012.42710        12.91396         6.15419
     2012.42984        18.61391         6.29445
     2012.43258        11.01857         6.24326
     2012.43532        18.03907         6.09427
     2012.43806        13.32750         6.10912
     2012.44079        15.00883         6.16251
     2012.44353        14.53018         6.24404
     2012.44627        14.72565         6.53199
     2012.44901        14.53619         6.18172
     2012.45175        14.03083         7.93925
     2012.45448        19.17452         6.20531
     2012.45722        19.41509         6.27935
     2012.45996        18.92399         6.39817
     2012.46270        17.92594         6.57758
     2012.46543        11.04698         6.31717
     2012.46817        10.57259         6.16410
     2012.47091        14.26610         6.23823
     2012.47365        14.94596         6.13985
     2012.47639         5.25343         7.13698
     2012.47912         9.93423         6.23225
     2012.48186         8.89342         6.17670
     2012.48460        13.57645         7.82542
     2012.48734        12.50734         6.10288
     2012.49008        20.77167         6.32072
     2012.49281        16.65016         6.20095
     2012.49555        25.57051         6.18820
     2012.49829        16.54922         6.15984
     2012.50103        21.39043         6.14117
     2012.50376        16.44791         6.19524
     2012.50650        12.56498         6.20394
     2012.50924        11.80255         6.39585
     2012.51198        13.56327         6.20988
     2012.51472         3.77140         6.49083
     2012.51745        20.26994         6.09499
     2012.52019        15.22774         7.48160
     2012.52293        15.54569         7.53136
     2012.52567        19.55162         6.17750
     2012.52841        18.95712         6.10802
     2012.53114        16.23400         6.10815
     2012.53388        22.29008         6.18209
     2012.53662        17.79999         6.21739
     2012.53936        14.22063         6.27114
     2012.54209        15.40007         6.12208
     2012.54483        23.11782         6.23864
     2012.54757        21.88392         6.11155
     2012.55031        25.05204         6.33661
     2012.55305        19.53513         6.11244
     2012.55578        21.89710         6.10698
     2012.55852        14.92329         6.07072
     2012.56126        24.39177         6.17918
     2012.56400        28.75545         6.21253
     2012.56674        29.76868         6.25225
     2012.56947        25.63604         6.22603
     2012.57221        25.51006         6.28223
     2012.57495        25.71674         6.07051
     2012.57769        26.74858         6.15340
     2012.58042        27.83178         6.95310
     2012.58316        28.53154         6.33568
     2012.58590        16.69588         6.65227
     2012.58864        30.00692         6.37661
     2012.59138        25.61988         6.20374
     2012.59411        26.14814         9.11309
     2012.62423        37.28750         8.21276
     2012.62697        23.16692         6.60492
     2012.62971        12.82192         6.19341
     2012.63244        18.60657         6.21611
     2012.63518        29.92415         6.42473
     2012.63792        24.49506         6.19666
     2012.64066        19.25382         7.37638
     2012.64339        17.35946         6.19574
     2012.64613        15.75879         6.16248
     2012.64887        22.99053         6.35117
     2012.65161        30.23010         6.57969
     2012.65435        24.38981         6.19071
     2012.65708        29.46537         6.29484
     2012.65982        23.99625         6.57179
     2012.66256        17.30085         6.41884
     2012.66530        26.80222         6.31553
     2012.66804        21.67158         6.33108
     2012.67077        21.56510         6.49297
     2012.67351        20.93167         6.12084
     2012.67625        23.28141         6.18365
     2012.67899        28.20783         6.41720
     2012.68172        36.15535         6.21809
     2012.68446        29.76556         6.34979
     2012.68720        28.76512         7.01650
     2012.68994        27.43796         6.07470
     2012.69268        23.29885         6.23797
     2012.69541        19.11488         6.41341
     2012.69815        25.42442         6.46826
     2012.70089        22.67335         6.73674
     2012.70363        20.26833         6.16138
     2012.70637        21.14137         6.18388
     2012.70910        29.26687         7.59106
     2012.71184        33.01810         6.42848
     2012.71458        29.66932         6.27374
     2012.71732        27.15411         6.20982
     2012.72005        33.91429         6.34399
     2012.72279        22.24362         6.24043
     2012.72553        22.80535         6.23837
     2012.72827        24.92898         6.14800
     2012.73101        24.12633         7.52394
     2012.73374        24.97852         6.43541
     2012.73648        20.52639         6.24520
     2012.73922        21.77794         7.15517
     2012.74196        26.03789         6.65839
     2012.74470        27.43072         6.20479
     2012.74743        25.92023         6.33293
     2012.75017        26.07491         6.41712
     2012.75291        29.25226         6.24923
     2012.75565        23.64503         6.21618
     2012.75838        21.14873         6.25520
     2012.76112        25.58553         6.22534
     2012.76386        24.50124         6.31993
     2012.76660        28.00946         6.38999
     2012.76934        25.81909         6.48224
     2012.77207        19.98013         6.39280
     2012.77481        24.35393         6.58847
     2012.77755        20.08390         6.59024
     2012.78029        22.54607         6.60925
     2012.78303        20.17233         6.52510
     2012.78576        19.84175         6.52898
     2012.78850        27.89481         6.37076
     2012.79124        22.72664         6.32006
     2012.79398        18.92503         6.20323
     2012.79671        21.04106         6.48968
     2012.79945        17.89671         6.27926
     2012.80219        26.33156         6.43536
     2012.80493        10.30092         6.57043
     2012.80767        21.83599         7.88954
     2012.87064        39.64085        13.39537
     2012.87337        13.36129         6.43280
     2012.87611        16.25100         6.23716
     2012.87885        25.80546         6.13831
     2013.10335         7.19466         9.73354
     2013.10609        20.26095        10.36154
     2013.11704        -0.90736        12.45028
     2013.11978         4.40905        10.39092
     2013.12252        10.99765         9.53024
     2013.12526        14.81027         9.75673
     2013.12799         8.53356         9.67199
     2013.13073        12.62221        10.00819
     2013.13347         8.24801        10.05234
     2013.13621        20.87956        10.35913
     2013.13895        17.08796        10.69707
     2013.14168        -2.84891        10.26357
     2013.14442         2.25504        11.61066
     2013.14716         9.99465        10.01038
     2013.14990        14.53283        10.16531
     2013.15264         1.86641        10.39294
     2013.15537        21.86922        11.32468
     2013.15811         1.14849        11.22619
     2013.16085        20.78373        10.14947
     2013.16359        14.82246        10.54575
     2013.16632         8.16834        10.03677
     2013.16906        11.19596         9.89607
     2013.17180         0.76634        10.10808
     2013.17454       -13.71051        12.27328
     2013.17728        12.14233        10.46038
     2013.18001        10.39718        11.72346
     2013.18275         4.74032        11.08345
     2013.18549         6.81881        10.06459
     2013.18823         5.24599        10.36276
     2013.19097        17.14918        11.19948
     2013.19370        16.25694        11.03894
     2013.19644        13.44015        10.02008
     2013.19918        18.10908        10.08082
     2013.20192        15.42903        10.60173
     2013.20465        12.99500        10.37921
     2013.20739         0.31208         9.93037
     2013.21013         7.42542        10.20693
     2013.21287        20.07481        10.71546
     2013.21561         6.58991        10.96755
     2013.21834        11.34030         9.95409
     2013.22108         5.40532        10.32262
     2013.22382         2.40424        10.81990
     2013.22656        11.47129        10.57176
     2013.22930         3.06425        10.78581
     2013.23203        10.56717        10.50121
     2013.23477        14.99586        10.00115
     2013.23751         3.19544        11.00964
     2013.24025        13.51611        10.52642
     2013.24298        10.74624        10.28668
     2013.24572         9.18750         9.94968
     2013.24846         8.78831        10.31721
     2013.25120        13.62464         9.30225
     2013.25394         6.95730        11.40289
     2013.25667        -2.00415        10.12397
     2013.25941        13.14678        12.16653
     2013.26215        16.15159        11.05586
     2013.26489        20.22384         9.73441
     2013.26762         4.23094        10.62713
     2013.27036         9.46917        10.06389
     2013.27310         2.88962        11.38923
     2013.27584        20.50395         9.78445
     2013.27858        15.73227        10.02425
     2013.28131        12.49877        10.40940
     2013.28405         4.90471        10.88928
     2013.28679         7.25003        10.65563
     2013.28953        11.70118        11.40854
     2013.29227        -3.44104        10.35611
     2013.29500         5.76961        10.26464
     2013.29774        16.67822        11.42787
     2013.31691         4.79852        10.06480
     2013.31964        11.03533        10.20313
     2013.32238         5.47976         9.78529
     2013.32512        11.91970        10.19479
     2013.32786         7.32958        10.27463
     2013.33060         2.07695         9.34525
     2013.33333        -0.00246        13.52512
     2013.33607         9.48964        10.27913
     2013.33881         9.59403        10.65397
     2013.34155         6.26467         9.89164
     2013.34428        12.92321        10.04642
     2013.34702         2.22745         9.18169
     2013.34976        -2.68097        12.97304
     2013.35250         9.14521        10.70936
     2013.35524        14.96193         9.56824
     2013.35797        -1.52949        10.75277
     2013.36071        11.42252        10.45576
     2013.36345        12.56666        10.29362
     2013.36619        14.11404         9.29953
     2013.36893        14.64139         9.56248
     2013.37166         8.52768         9.63164
     2013.37440        -1.62589         9.97326
     2013.37714        13.89183         9.60800
     2013.37988         2.54664         9.86812
     2013.38261         8.61173         9.87139
     2013.38535         4.41803         8.93655
     2013.38809         5.84162         9.89785
     2013.39083         8.67286         9.31543
     2013.39357        20.20671        18.43624
     2013.39904         6.89666        12.37925
     2013.40178        10.06934         9.30139
     2013.40452         7.49274         9.03854
     2013.40726        18.54456        10.16543
     2013.40999        19.66514         9.52657
     2013.41273        15.17982         8.96763
     2013.41547         8.18210        10.32368
     2013.41821        14.00275        10.20444
     2013.42094        20.56224        10.72076
     2013.42368         8.10587         9.79996
     2013.42642        14.58551         9.79901
     2013.42916        17.59812         9.58611
     2013.43190        10.81093         9.42822
     2013.43463         1.85828         9.81273
     2013.43737         7.49339        10.24927
     2013.44011         3.85664        10.55701
     2013.44285        13.78910         9.71512
     2013.44559        11.59440        10.04703
     2013.44832         2.60184         9.30632
     2013.45106        11.65486         9.20697
     2013.45380        12.06531         9.27537
     2013.45654        14.10980        10.67908
     2013.45927         6.68369        13.04764
     2013.46201         7.93330         9.23058
     2013.46475        15.20440         9.52955
     2013.46749        20.62564         9.70446
     2013.47023         6.59659        10.90563
     2013.47296        24.37549         9.36167
     2013.47570        22.70858         9.87483
     2013.47844        40.85658        16.46837
     2013.48118        11.07839        13.60415
     2013.48392        27.22615        11.32061
     2013.48665        11.98560        12.32474
     2013.48939        26.94149        10.37084
     2013.49213        26.56820        12.20213
     2013.49487        14.63612        10.93425
     2013.49760        16.21561         9.26772
     2013.50034        16.01350         8.74934
     2013.50308        14.75107        10.68437
     2013.50582        18.54627         8.97714
     2013.50856        13.10600         8.65085
     2013.51129        20.59581         9.25052
     2013.51403        10.67148         9.13988
     2013.51677        17.81008         9.55389
     2013.51951        21.89043         9.11122
