# ================= DQRFIT RESULTS ================
# INPUT FILE: series/RYMD.rad
# OUTPUT: CLEANED_DATA
# FILTER FUNCTION: f(t)
# f(t)=+line(t)+annual(t)
# line(t)=+P 1+P 2*t
# annual(t)=+P 3*sin(2*pi*t+P 4)
# heav(t)=(t<0?0:1)
# TOTAL OBSERVATIONS MTOT= 3375
# INITIAL TIME INTERVAL= 2017.4593 - 2007.9973 =  9.4620
# TOTAL OBSERVATIONS AFTER PREFILTER M= 3361
# TIME-SPAN= 2017.4593 - 2007.9973 =  9.4620
# OBSERVATIONS: USED M=  3361 REJECTED MTOT-M=    14 %USED=   99.5852
# N=  4 PARAMETERS
# MAXSIG= 175.00000
# MAXRES=  40.78508
# SCALE FACTOR FOR LENGTHS: SCL=  10.00000
# SCALE FACTOR FOR SIGMAS: SCLSIG=   1.00000
# CHI^2=   5175.745 DOF=  3357 CHI^2/DOF=   1.54178
# RMS=      7.462 SDEV=      7.408 MEAN=   -0.90606
#  P #       PARAMETER +-    SIGMA %error PARAMETER NAME
# P 1 =      -176.56605 +-   71.254  40.36 YZERO                              
# P 2 =         0.08789 +-    0.035  40.26 SLOPE                              
# P 3 =         5.34780 +-    0.156   2.91 ANNUAL AMPLITUDE                   
# P 4 =        -2.71878 +-    0.038   1.39 ANNUAL PHASE                       
#       T             B_CLEANED       RE-SCALED_SIG_OBS
     2007.99726        -5.39321         5.97354
     2008.00000         4.86704         6.09093
     2008.00274         8.06673         4.13562
     2008.00548         0.01367         4.06040
     2008.00821         7.04574         4.02618
     2008.01095         5.43986         4.07133
     2008.01369        -1.75586         4.02403
     2008.01643         0.20787         4.07679
     2008.01916        -5.32299         4.08570
     2008.02190        -3.90741         4.09391
     2008.02464        -8.58466         4.19268
     2008.02738        -3.09402         4.12551
     2008.03012        -6.90726         4.20133
     2008.03285       -11.08146         4.04065
     2008.03559        -0.70896         7.12285
     2008.03833        -7.62780         4.00583
     2008.04107        -5.33409         4.14142
     2008.04381        -3.72257         4.21527
     2008.04654        -2.36915         4.17025
     2008.04928        -8.96316         4.03092
     2008.05202        -7.14964         4.03921
     2008.05476        -3.68076         4.01037
     2008.05749        -3.36514         4.04200
     2008.06023         3.00278         4.06677
     2008.06297         4.73825         4.02377
     2008.09582       -13.43506         5.33694
     2008.09856        -5.39962         4.22299
     2008.10130        -9.29923         4.14360
     2008.10404        -5.90194         6.58716
     2008.10678       -12.10615         4.00621
     2008.10951       -10.32884         4.01503
     2008.11225       -10.84689         4.04252
     2008.12868        -1.40158         6.81623
     2008.13142        -0.19818         4.01850
     2008.13415         2.18359         4.03973
     2008.13689        -2.46336         3.98972
     2008.13963        -1.86571         4.14877
     2008.14237         2.14796         4.03377
     2008.14511        -1.66980         4.05695
     2008.14784         2.53576         4.04216
     2008.15058        -6.41406         4.00666
     2008.15332       -10.42462         4.01532
     2008.15606         2.89228         6.43144
     2008.15880        -8.67930         4.01959
     2008.16153         1.45459         4.01319
     2008.16427        -5.90167         3.97384
     2008.16701       -12.13750         3.99567
     2008.16975        -9.34436         6.44983
     2008.17248        -3.80173         3.96394
     2008.17522        -5.28945         3.95867
     2008.17796       -10.84005         3.97540
     2008.18070         2.05576         3.98500
     2008.18344        -3.27739         3.96562
     2008.18617        -2.62926         4.03744
     2008.18891         0.61014         3.98729
     2008.19165         2.01295         3.94754
     2008.19439        -1.60089         3.96575
     2008.19713        -2.05718         4.93530
     2008.19986        -4.77313         4.07305
     2008.20260        -8.37661         3.99007
     2008.20534        -1.66159         3.95206
     2008.20808        -1.07922         4.13449
     2008.21081        -3.56772         4.23508
     2008.21355        -3.18685         4.34097
     2008.21629         2.25798         4.07845
     2008.21903        -0.14199         4.05634
     2008.22177        -7.42883         4.00521
     2008.22450        -2.58608         4.14918
     2008.22724        -4.06510         4.07929
     2008.22998        -0.78778         4.08353
     2008.23272        -5.10253         4.27739
     2008.23546       -20.06200         6.41624
     2008.23819        -0.54485         4.10849
     2008.24093        -2.91730         4.02429
     2008.24367       -11.43995         4.00047
     2008.24641       -10.94724         4.57716
     2008.24914        -2.50623         4.13117
     2008.25188         0.03631         4.10278
     2008.25462        -3.63175         4.01782
     2008.25736        -2.88110         5.01953
     2008.26010        -1.20331         4.02755
     2008.26283        -6.19923         4.05700
     2008.26557        -4.10403         4.04845
     2008.26831        -4.96549         4.07727
     2008.27105        -2.88630         4.16074
     2008.27379        -2.49442         4.11054
     2008.27652        -5.14675         4.13297
     2008.27926        -3.61868         4.13696
     2008.28200         3.33716         4.05463
     2008.28474         2.38070         4.05120
     2008.28747         3.53802         4.15369
     2008.29021         6.45121         4.18895
     2008.29295         1.82558         5.51074
     2008.29569        -1.69527         4.06689
     2008.29843        -2.32842         4.08295
     2008.30116        -3.35426         4.18517
     2008.30390        -3.21856         4.07059
     2008.30664        -5.48922         4.27525
     2008.30938        -2.00894         4.50773
     2008.31211        -7.75641         4.56825
     2008.31485        -3.33599         4.07835
     2008.31759       -10.10523         4.14770
     2008.32033       -10.65657         4.19291
     2008.32307        -1.99477         4.11750
     2008.32580        -4.02735         4.33732
     2008.32854         2.51855         4.16340
     2008.33128        -1.98894         4.19873
     2008.33402         0.68372         4.06593
     2008.33676        -2.24607         4.12955
     2008.33949        -2.07284         4.25222
     2008.34223        -3.42316         4.04666
     2008.34497         2.48959         4.15599
     2008.34771         5.39983         4.04438
     2008.35044         2.24362         4.15396
     2008.35318         0.67752         4.17350
     2008.35592         0.83639         4.00038
     2008.35866         0.01527         4.00644
     2008.36140         8.93537         4.84874
     2008.36413         2.10691         4.13452
     2008.36687         1.15940         4.09129
     2008.36961         3.81099         3.99811
     2008.37235        -0.80640         4.00748
     2008.37509         7.05927         5.77300
     2008.37782         9.83628         4.11307
     2008.38056         1.17571         4.15318
     2008.38330         4.28850         4.13814
     2008.38604        -1.40312         3.99174
     2008.38877         4.26413         4.13271
     2008.39151         2.90821         4.24572
     2008.39425         1.08742         4.01297
     2008.39699         6.77650         4.00711
     2008.39973         7.39695         4.09726
     2008.40246         3.00589         4.51185
     2008.40520         3.98667         4.18773
     2008.40794         4.15645         4.12197
     2008.41068         2.02423         4.06650
     2008.41342        -0.87614         4.02754
     2008.41615         3.88620         3.98253
     2008.41889         4.91337         4.04617
     2008.42163         0.99219         4.10141
     2008.42437         3.06008         4.66548
     2008.42710        -1.68113         4.08357
     2008.42984         5.33988         4.09038
     2008.43258         2.17890         4.19831
     2008.43532         0.78959         4.16819
     2008.43806        -0.20992         4.13655
     2008.44079        -0.15081         4.05119
     2008.44353        -0.72973         4.15402
     2008.44627        -1.50043         4.12029
     2008.44901        -0.44968         4.03522
     2008.45175        -2.72365         4.13459
     2008.45448        -4.46536         4.12624
     2008.45722        -1.17096         4.04714
     2008.45996        -2.09334         4.06102
     2008.46270        -3.02986         4.34368
     2008.46543         1.01053         4.29323
     2008.46817        -2.63040         3.98642
     2008.47091        -7.35590         4.01414
     2008.47365         1.47759         4.13082
     2008.47639        -2.74326         4.02864
     2008.47912        -1.38827         4.01242
     2008.48186        -0.35898         4.04982
     2008.48460         1.46666         4.16698
     2008.48734        -2.20944         4.08137
     2008.49008        -0.11184         4.19281
     2008.49281        -1.66372         3.98514
     2008.49555         0.59808         3.98195
     2008.49829         1.36919         4.11116
     2008.50103         1.01912         4.15949
     2008.50376         6.79290         4.01792
     2008.50650         7.67135         3.99766
     2008.50924         3.26306         3.94068
     2008.51198         3.56106         3.99425
     2008.51472        -2.09792         4.03636
     2008.51745         0.55028         4.08139
     2008.52019         6.02201         3.99593
     2008.52293        10.30362         4.16073
     2008.52567         6.42905         4.32564
     2008.52841        -0.37474         4.03661
     2008.53114         5.91349         4.07596
     2008.53388        11.37418         4.15025
     2008.53662         4.97156         4.16353
     2008.53936         6.04139         4.28655
     2008.54209         6.90478         4.26761
     2008.54483         6.97182         4.22539
     2008.54757        10.93518         4.12850
     2008.55031         7.53517         4.01045
     2008.55305        10.51571         4.00239
     2008.55578         4.30585         3.99808
     2008.55852         2.84610         4.04337
     2008.56126         2.47594         4.43888
     2008.56400        10.27565         4.03501
     2008.56674         1.19458         4.03228
     2008.56947         4.08339         3.99790
     2008.57221         7.33415         4.24455
     2008.57495         2.37628         4.20084
     2008.57769        -1.22622         4.32278
     2008.58042         8.62711         4.06504
     2008.58316        11.47708         4.01081
     2008.58590         4.64862         4.01523
     2008.58864         1.84337         4.13121
     2008.59138         9.49707         5.07696
     2008.59411         5.35380         3.99627
     2008.59685         6.13655         4.11064
     2008.59959        15.62176         4.21496
     2008.60233         5.97407         4.30334
     2008.60507         5.01617         4.12840
     2008.60780         6.75833         4.05483
     2008.61054         7.73023         4.45345
     2008.61328         3.94111         8.36343
     2008.61602        14.13501         7.77529
     2008.61875         7.62679         8.24575
     2008.62149         1.10752        11.22613
     2008.62423        11.34268         8.58353
     2008.62697         5.91426         8.54592
     2008.62971         2.77888         9.47269
     2008.63244        16.29144         8.51416
     2008.63518        -5.42069         8.11934
     2008.63792         2.25395         8.91061
     2008.64066         3.29765         7.99805
     2008.64339        19.89080         8.22989
     2008.64613        -1.78583         7.92384
     2008.64887         4.36639         7.65583
     2008.65161         6.13226         9.33908
     2008.65435         6.01711         8.29453
     2008.65708        -2.99363         7.96061
     2008.65982         4.15124         7.93512
     2008.66256         6.22526         8.05819
     2008.66530         9.49140         8.59310
     2008.66804         3.53424        10.17712
     2008.67077        -7.50919         8.05318
     2008.67351         0.26057         8.72548
     2008.67625        -5.49799         8.66838
     2008.67899         2.95242         9.29863
     2008.68172        10.01049         8.67096
     2008.68446         5.59049         8.57775
     2008.68720        14.21074         8.15916
     2008.68994         1.74956        10.11696
     2008.69268        -1.64093         8.79910
     2008.69541        -3.90575         9.12026
     2008.69815         1.39782         8.36321
     2008.70089        10.83529         8.86223
     2008.70363         7.77157         7.63579
     2008.70637         9.22776         8.30377
     2008.70910         3.47442         8.36627
     2008.71184         9.44700         8.09359
     2008.71458        -7.17663         8.54493
     2008.71732        13.73248         8.84139
     2008.72005        -4.79522         9.00790
     2008.72279        -4.63632         9.24860
     2008.72553        -8.11846         8.48058
     2008.72827        10.13051         8.31332
     2008.73101        -1.52515         9.23201
     2008.73374        13.06047         9.23149
     2008.73648         2.89033         8.44226
     2008.73922        18.02581         8.32329
     2008.74196         0.04248         8.51135
     2008.74470        -0.51915         8.97224
     2008.74743         4.53584         7.64444
     2008.75017        22.19914         8.80929
     2008.75291        15.18800         9.46218
     2008.75565         2.10411         9.03458
     2008.75838         7.21037        13.48422
     2008.76112       -10.93703         9.64451
     2008.76386         7.65076         9.48870
     2008.76660        13.29101        13.10184
     2008.76934        -9.11323        11.31202
     2008.77207        -3.33121         8.56285
     2008.77481        -2.84470         8.92979
     2008.77755       -10.74419         8.90631
     2008.78029         6.58852         9.55369
     2008.78303         9.27474         9.03202
     2008.78576         4.17525         8.88527
     2008.78850        -5.14914         8.43750
     2008.79124         7.63602         7.94353
     2008.79398         4.38957         8.42756
     2008.79671       -11.50853         9.48887
     2008.79945        -7.30404        19.72287
     2008.80219       -15.02610         7.87091
     2008.80493         4.51567         8.35494
     2008.80767        -0.31732         8.64761
     2008.81040        15.78545         8.72695
     2008.81314        -8.13584         9.76497
     2008.81588        21.20333         8.03036
     2008.81862         0.91972         8.45095
     2008.82136         7.76112         8.42234
     2008.82409         0.11283         9.22314
     2008.82683         9.38817         8.10358
     2008.82957        -5.04990         8.70996
     2008.83231        18.04931         7.95827
     2008.83504        19.34587         8.03686
     2008.83778         7.94149         9.14203
     2008.84052        -0.63447         7.89563
     2008.84326        -1.20118         9.06495
     2008.84600        15.14915         9.68430
     2008.84873         0.03468         8.60724
     2008.85147         0.17390         8.84786
     2008.85421       -12.18339         8.38430
     2008.85695         7.90612         7.82807
     2008.85969        15.42868         8.09653
     2008.86242        -4.60868         7.65002
     2008.86516        -2.00968         8.14239
     2008.86790        -1.74442         8.77799
     2008.87064         8.28053         7.97003
     2008.87337         2.27563         8.14626
     2008.87611        -1.95587         8.93274
     2008.87885       -14.92095        11.45486
     2008.88159         5.78301         8.33677
     2008.88433       -14.39960         8.37868
     2008.88706        20.52291         9.30411
     2008.88980         0.43442        10.12805
     2008.89254        -4.57838        11.29832
     2008.89528        -7.10093         9.96443
     2008.89802         5.15458         9.39135
     2008.90075         1.83120         9.36183
     2008.90349        -3.89162         8.66163
     2008.90897         6.16880        10.15669
     2008.91170        11.83845         9.50577
     2008.91444         2.96572         9.00069
     2008.91718        13.47034         8.13731
     2008.91992        15.72661         9.39797
     2008.92266        11.63606         8.84252
     2008.92539        -1.78562         8.61469
     2008.92813        -2.98830         9.52137
     2008.93087         6.72888        13.57271
     2008.93361       -15.08122         8.47868
     2008.93634        -7.64866         8.78527
     2008.93908       -16.78680        11.12064
     2008.94182         1.57484        10.46911
     2008.94456        -2.74290         9.83053
     2008.94730        -2.16725         8.35120
     2008.95003         4.75598         8.54573
     2008.95277         0.61947         8.61991
     2008.95551         0.24851         8.13392
     2008.95825         4.93439         8.73673
     2008.96099        -5.90052         8.51947
     2008.96372        -1.99902         8.40633
     2008.96646        -6.23054         7.72426
     2008.96920        -9.26811         8.45254
     2008.97194        -9.10067         8.30547
     2008.97467        -5.76372         8.40583
     2008.97741         0.55198         9.10974
     2008.98015        -5.74895         8.26151
     2008.98289       -12.20213         8.34732
     2008.98563        -6.39626         8.77352
     2008.98836       -14.84343        30.43562
     2008.99110        -9.86525         8.50573
     2008.99384         3.72138         9.49652
     2008.99658         3.83588         8.37491
     2008.99932        10.76060         8.43992
     2009.00205         5.11317         8.89041
     2009.00479       -10.56817         8.42809
     2009.00753       -13.68053         8.96814
     2009.01027        -5.11012         8.76327
     2009.01300         6.14829         7.96368
     2009.01574         5.70621         7.85668
     2009.01848        -0.31879         8.31011
     2009.02122        -9.91695         8.41834
     2009.02396        -0.09044         7.85376
     2009.02669        -7.08641         8.28942
     2009.02943       -13.30470         8.15966
     2009.03217         4.92546         7.31583
     2009.03491        -8.80883         7.97144
     2009.03765        -1.06842         7.89747
     2009.04038       -17.32778         8.03469
     2009.04312        -6.01653         8.21358
     2009.04586       -14.73135         8.33555
     2009.04860        -4.91380         8.51919
     2009.05133       -11.01787         8.13035
     2009.05407        -3.58689         8.69942
     2009.05681        -5.19253         8.46360
     2009.05955        -2.61208         8.73991
     2009.06229       -10.91321         7.80622
     2009.06502        -5.56550         8.40196
     2009.06776        -6.07438         8.20890
     2009.07050       -10.17143         8.81882
     2009.07324         2.02040         7.65307
     2009.07598        -7.19671         8.59015
     2009.07871        -4.75892         8.26360
     2009.08145        -9.87190        10.52239
     2009.08693        -9.96695         8.06613
     2009.08966       -16.40770         8.19504
     2009.09240       -13.03365         8.30326
     2009.09514       -18.44212         7.99057
     2009.09788        -8.83805         8.25032
     2009.10062         0.34981         7.78798
     2009.10335        -0.58904         8.08734
     2009.10609        -8.52515         8.15046
     2009.10883       -12.09967         8.34801
     2009.11157       -14.47228         7.82192
     2009.11431        -4.34975         7.87151
     2009.11704        -2.79120         9.77492
